# energy [eV], band-resolved DOS
  -15.221395    0.002063
  -15.160561    0.002107
  -15.099727    0.002153
  -15.038894    0.002200
  -14.978060    0.002248
  -14.917227    0.002298
  -14.856393    0.002350
  -14.795560    0.002404
  -14.734726    0.002460
  -14.673893    0.002517
  -14.613059    0.002577
  -14.552225    0.002638
  -14.491392    0.002702
  -14.430558    0.002769
  -14.369725    0.002837
  -14.308891    0.002909
  -14.248058    0.002983
  -14.187224    0.003060
  -14.126391    0.003140
  -14.065557    0.003223
  -14.004723    0.003310
  -13.943890    0.003400
  -13.883056    0.003494
  -13.822223    0.003592
  -13.761389    0.003694
  -13.700556    0.003800
  -13.639722    0.003911
  -13.578888    0.004027
  -13.518055    0.004149
  -13.457221    0.004276
  -13.396388    0.004408
  -13.335554    0.004548
  -13.274721    0.004693
  -13.213887    0.004847
  -13.153054    0.005007
  -13.092220    0.005176
  -13.031386    0.005354
  -12.970553    0.005541
  -12.909719    0.005738
  -12.848886    0.005945
  -12.788052    0.006165
  -12.727219    0.006396
  -12.666385    0.006641
  -12.605552    0.006901
  -12.544718    0.007176
  -12.483884    0.007468
  -12.423051    0.007778
  -12.362217    0.008108
  -12.301384    0.008460
  -12.240550    0.008836
  -12.179717    0.009237
  -12.118883    0.009667
  -12.058050    0.010127
  -11.997216    0.010621
  -11.936382    0.011153
  -11.875549    0.011727
  -11.814715    0.012346
  -11.753882    0.013017
  -11.693048    0.013744
  -11.632215    0.014535
  -11.571381    0.015397
  -11.510547    0.016340
  -11.449714    0.017374
  -11.388880    0.018511
  -11.328047    0.019766
  -11.267213    0.021156
  -11.206380    0.022702
  -11.145546    0.024428
  -11.084713    0.026365
  -11.023879    0.028550
  -10.963045    0.031028
  -10.902212    0.033857
  -10.841378    0.037109
  -10.780545    0.040877
  -10.719711    0.045282
  -10.658878    0.050484
  -10.598044    0.056697
  -10.537211    0.064218
  -10.476377    0.073454
  -10.415543    0.084976
  -10.354710    0.099569
  -10.293876    0.118256
  -10.233043    0.142191
  -10.172209    0.172407
  -10.111376    0.209374
  -10.050542    0.251745
   -9.989708    0.295536
   -9.928875    0.338901
   -9.868041    0.387060
   -9.807208    0.445889
   -9.746374    0.513785
   -9.685541    0.583543
   -9.624707    0.647957
   -9.563874    0.710989
   -9.503040    0.787069
   -9.442206    0.873357
   -9.381373    0.941457
   -9.320539    0.966952
   -9.259706    0.949165
   -9.198872    0.888372
   -9.138039    0.779430
   -9.077205    0.640443
   -9.016372    0.504323
   -8.955538    0.391664
   -8.894704    0.306041
   -8.833871    0.242858
   -8.773037    0.196224
   -8.712204    0.161348
   -8.651370    0.134800
   -8.590537    0.114216
   -8.529703    0.097977
   -8.468870    0.084958
   -8.408036    0.074370
   -8.347202    0.065648
   -8.286369    0.058378
   -8.225535    0.052257
   -8.164702    0.047055
   -8.103868    0.042595
   -8.043035    0.038745
   -7.982201    0.035396
   -7.921367    0.032465
   -7.860534    0.029886
   -7.799700    0.027604
   -7.738867    0.025575
   -7.678033    0.023763
   -7.617200    0.022138
   -7.556366    0.020675
   -7.495533    0.019352
   -7.434699    0.018154
   -7.373865    0.017064
   -7.313032    0.016069
   -7.252198    0.015160
   -7.191365    0.014325
   -7.130531    0.013559
   -7.069698    0.012852
   -7.008864    0.012199
   -6.948031    0.011595
   -6.887197    0.011035
   -6.826363    0.010515
   -6.765530    0.010031
   -6.704696    0.009579
   -6.643863    0.009158
   -6.583029    0.008763
   -6.522196    0.008394
   -6.461362    0.008048
   -6.400529    0.007723
   -6.339695    0.007417
   -6.278861    0.007129
   -6.218028    0.006857
   -6.157194    0.006601
   -6.096361    0.006359
   -6.035527    0.006130
   -5.974694    0.005913
   -5.913860    0.005708
   -5.853026    0.005513
   -5.792193    0.005327
   -5.731359    0.005152
   -5.670526    0.004984
   -5.609692    0.004825
   -5.548859    0.004673
   -5.488025    0.004528
   -5.427192    0.004390
   -5.366358    0.004259
   -5.305524    0.004133
   -5.244691    0.004012
   -5.183857    0.003897
   -5.123024    0.003787
   -5.062190    0.003681
   -5.001357    0.003579
   -4.940523    0.003482
   -4.879690    0.003389
   -4.818856    0.003299
   -4.758022    0.003213
   -4.697189    0.003131
   -4.636355    0.003051
   -4.575522    0.002974
   -4.514688    0.002901
   -4.453855    0.002830
   -4.393021    0.002761
   -4.332188    0.002695
   -4.271354    0.002631
   -4.210520    0.002570
   -4.149687    0.002511
   -4.088853    0.002454
   -4.028020    0.002398
   -3.967186    0.002345
   -3.906353    0.002293
   -3.845519    0.002243
   -3.784685    0.002195
   -3.723852    0.002148
   -3.663018    0.002102
   -3.602185    0.002059
   -3.541351    0.002016
   -3.480518    0.001975
   -3.419684    0.001935
   -3.358851    0.001896
   -3.298017    0.001858
   -3.237183    0.001822
   -3.176350    0.001786
   -3.115516    0.001752
   -3.054683    0.001718
   -2.993849    0.001686
   -2.933016    0.001654
   -2.872182    0.001624
   -2.811349    0.001594
   -2.750515    0.001565
   -2.689681    0.001536
   -2.628848    0.001509
   -2.568014    0.001482
   -2.507181    0.001456
   -2.446347    0.001431
   -2.385514    0.001406
   -2.324680    0.001382
   -2.263847    0.001358
   -2.203013    0.001336
   -2.142179    0.001313
   -2.081346    0.001292
   -2.020512    0.001270
   -1.959679    0.001250
   -1.898845    0.001229
   -1.838012    0.001210
   -1.777178    0.001191
   -1.716344    0.001172
   -1.655511    0.001153
   -1.594677    0.001135
   -1.533844    0.001118
   -1.473010    0.001101
   -1.412177    0.001084
   -1.351343    0.001068
   -1.290510    0.001052
   -1.229676    0.001036
   -1.168842    0.001021
   -1.108009    0.001006
   -1.047175    0.000992
   -0.986342    0.000977
   -0.925508    0.000963
   -0.864675    0.000950
   -0.803841    0.000936
   -0.743008    0.000923
   -0.682174    0.000910
   -0.621340    0.000898
   -0.560507    0.000885
   -0.499673    0.000873
   -0.438840    0.000861
   -0.378006    0.000850
   -0.317173    0.000839
   -0.256339    0.000827
   -0.195505    0.000817
   -0.134672    0.000806
   -0.073838    0.000795
   -0.013005    0.000785
    0.047829    0.000775
    0.108662    0.000765
    0.169496    0.000755
    0.230329    0.000746
    0.291163    0.000737
    0.351997    0.000727
    0.412830    0.000718
    0.473664    0.000710
    0.534497    0.000701
    0.595331    0.000692
    0.656164    0.000684
    0.716998    0.000676
    0.777831    0.000668
    0.838665    0.000660
    0.899499    0.000652
    0.960332    0.000645
    1.021166    0.000637
    1.081999    0.000630
    1.142833    0.000622
    1.203666    0.000615
    1.264500    0.000608
    1.325333    0.000601
    1.386167    0.000595
    1.447001    0.000588
    1.507834    0.000581
    1.568668    0.000575
    1.629501    0.000569
    1.690335    0.000562
    1.751168    0.000556
    1.812002    0.000550
    1.872836    0.000544
    1.933669    0.000539
    1.994503    0.000533
    2.055336    0.000527
    2.116170    0.000522
    2.177003    0.000516
    2.237837    0.000511
    2.298670    0.000506
    2.359504    0.000500
    2.420338    0.000495
    2.481171    0.000490
    2.542005    0.000485
    2.602838    0.000480
    2.663672    0.000475
    2.724505    0.000471
    2.785339    0.000466
    2.846172    0.000461
    2.907006    0.000457
    2.967840    0.000452
    3.028673    0.000448
    3.089507    0.000444
    3.150340    0.000439
    3.211174    0.000435
    3.272007    0.000431
    3.332841    0.000427
    3.393674    0.000423
    3.454508    0.000419
    3.515342    0.000415
    3.576175    0.000411
    3.637009    0.000407
    3.697842    0.000403
    3.758676    0.000400
    3.819509    0.000396
    3.880343    0.000392
    3.941177    0.000389
    4.002010    0.000385
    4.062844    0.000382
    4.123677    0.000378
    4.184511    0.000375
    4.245344    0.000372
    4.306178    0.000368
    4.367011    0.000365
    4.427845    0.000362
    4.488679    0.000359
    4.549512    0.000356
    4.610346    0.000353
    4.671179    0.000349
    4.732013    0.000346
    4.792846    0.000344
    4.853680    0.000341
    4.914513    0.000338
    4.975347    0.000335
    5.036181    0.000332
    5.097014    0.000329
    5.157848    0.000327
    5.218681    0.000324
    5.279515    0.000321
    5.340348    0.000318
    5.401182    0.000316
    5.462015    0.000313
    5.522849    0.000311
    5.583683    0.000308
    5.644516    0.000306
    5.705350    0.000303
    5.766183    0.000301
    5.827017    0.000298
    5.887850    0.000296
    5.948684    0.000294
    6.009518    0.000291
    6.070351    0.000289
    6.131185    0.000287
    6.192018    0.000285
    6.252852    0.000282
    6.313685    0.000280
    6.374519    0.000278
    6.435352    0.000276
    6.496186    0.000274
    6.557020    0.000272
    6.617853    0.000270
    6.678687    0.000268
    6.739520    0.000266
    6.800354    0.000264
    6.861187    0.000262
    6.922021    0.000260
    6.982854    0.000258
    7.043688    0.000256
    7.104522    0.000254
    7.165355    0.000252
    7.226189    0.000250
    7.287022    0.000249
    7.347856    0.000247
    7.408689    0.000245
    7.469523    0.000243
    7.530356    0.000241
    7.591190    0.000240
    7.652024    0.000238
    7.712857    0.000236
    7.773691    0.000235
    7.834524    0.000233
    7.895358    0.000231
    7.956191    0.000230
    8.017025    0.000228
    8.077859    0.000227
    8.138692    0.000225
    8.199526    0.000223
    8.260359    0.000222
    8.321193    0.000220
    8.382026    0.000219
    8.442860    0.000217
    8.503693    0.000216
    8.564527    0.000214
    8.625361    0.000213
    8.686194    0.000212
    8.747028    0.000210
    8.807861    0.000209
    8.868695    0.000207
    8.929528    0.000206
    8.990362    0.000205
    9.051195    0.000203
    9.112029    0.000202
    9.172863    0.000201
    9.233696    0.000199
    9.294530    0.000198
    9.355363    0.000197
    9.416197    0.000195
    9.477030    0.000194
    9.537864    0.000193
    9.598697    0.000192
    9.659531    0.000191
    9.720365    0.000189
    9.781198    0.000188
    9.842032    0.000187
    9.902865    0.000186
    9.963699    0.000185
   10.024532    0.000183
   10.085366    0.000182
   10.146200    0.000181
   10.207033    0.000180
   10.267867    0.000179
   10.328700    0.000178
   10.389534    0.000177
   10.450367    0.000176
   10.511201    0.000175
   10.572034    0.000174
   10.632868    0.000172
   10.693702    0.000171
   10.754535    0.000170
   10.815369    0.000169
   10.876202    0.000168
   10.937036    0.000167
   10.997869    0.000166
   11.058703    0.000165
   11.119536    0.000164
   11.180370    0.000163
   11.241204    0.000162
   11.302037    0.000162
   11.362871    0.000161
   11.423704    0.000160
   11.484538    0.000159
   11.545371    0.000158
   11.606205    0.000157
   11.667039    0.000156
   11.727872    0.000155
   11.788706    0.000154
   11.849539    0.000153
   11.910373    0.000152
   11.971206    0.000152
   12.032040    0.000151
   12.092873    0.000150
   12.153707    0.000149
   12.214541    0.000148
   12.275374    0.000147
   12.336208    0.000147
   12.397041    0.000146
   12.457875    0.000145
   12.518708    0.000144
   12.579542    0.000143
   12.640375    0.000142
   12.701209    0.000142
   12.762043    0.000141
   12.822876    0.000140
   12.883710    0.000139
   12.944543    0.000139
   13.005377    0.000138
   13.066210    0.000137
   13.127044    0.000136
   13.187877    0.000136
   13.248711    0.000135
   13.309545    0.000134
   13.370378    0.000134
   13.431212    0.000133
   13.492045    0.000132
   13.552879    0.000131
   13.613712    0.000131
   13.674546    0.000130
   13.735380    0.000129
   13.796213    0.000129
   13.857047    0.000128
   13.917880    0.000127
   13.978714    0.000127
   14.039547    0.000126
   14.100381    0.000125
   14.161214    0.000125
   14.222048    0.000124
   14.282882    0.000123
   14.343715    0.000123
   14.404549    0.000122
   14.465382    0.000122
   14.526216    0.000121
   14.587049    0.000120
   14.647883    0.000120
   14.708716    0.000119
   14.769550    0.000119
   14.830384    0.000118
   14.891217    0.000117
   14.952051    0.000117
   15.012884    0.000116
   15.073718    0.000116
   15.134551    0.000115
