# energy [eV], band-resolved DOS
  -17.669947    0.000305
  -17.595353    0.000308
  -17.520760    0.000311
  -17.446166    0.000314
  -17.371572    0.000318
  -17.296979    0.000321
  -17.222385    0.000324
  -17.147792    0.000328
  -17.073198    0.000331
  -16.998605    0.000334
  -16.924011    0.000338
  -16.849417    0.000342
  -16.774824    0.000345
  -16.700230    0.000349
  -16.625637    0.000353
  -16.551043    0.000356
  -16.476450    0.000360
  -16.401856    0.000364
  -16.327262    0.000368
  -16.252669    0.000372
  -16.178075    0.000376
  -16.103482    0.000381
  -16.028888    0.000385
  -15.954295    0.000389
  -15.879701    0.000394
  -15.805107    0.000398
  -15.730514    0.000403
  -15.655920    0.000407
  -15.581327    0.000412
  -15.506733    0.000417
  -15.432139    0.000422
  -15.357546    0.000427
  -15.282952    0.000432
  -15.208359    0.000437
  -15.133765    0.000442
  -15.059172    0.000448
  -14.984578    0.000453
  -14.909984    0.000459
  -14.835391    0.000464
  -14.760797    0.000470
  -14.686204    0.000476
  -14.611610    0.000482
  -14.537017    0.000488
  -14.462423    0.000494
  -14.387829    0.000501
  -14.313236    0.000507
  -14.238642    0.000514
  -14.164049    0.000521
  -14.089455    0.000527
  -14.014862    0.000534
  -13.940268    0.000542
  -13.865674    0.000549
  -13.791081    0.000556
  -13.716487    0.000564
  -13.641894    0.000572
  -13.567300    0.000580
  -13.492707    0.000588
  -13.418113    0.000596
  -13.343519    0.000604
  -13.268926    0.000613
  -13.194332    0.000622
  -13.119739    0.000631
  -13.045145    0.000640
  -12.970552    0.000649
  -12.895958    0.000659
  -12.821364    0.000669
  -12.746771    0.000679
  -12.672177    0.000689
  -12.597584    0.000699
  -12.522990    0.000710
  -12.448397    0.000721
  -12.373803    0.000732
  -12.299209    0.000744
  -12.224616    0.000756
  -12.150022    0.000768
  -12.075429    0.000780
  -12.000835    0.000793
  -11.926242    0.000806
  -11.851648    0.000819
  -11.777054    0.000833
  -11.702461    0.000847
  -11.627867    0.000861
  -11.553274    0.000876
  -11.478680    0.000891
  -11.404087    0.000906
  -11.329493    0.000922
  -11.254899    0.000939
  -11.180306    0.000955
  -11.105712    0.000973
  -11.031119    0.000990
  -10.956525    0.001008
  -10.881932    0.001027
  -10.807338    0.001046
  -10.732744    0.001066
  -10.658151    0.001087
  -10.583557    0.001108
  -10.508964    0.001129
  -10.434370    0.001151
  -10.359777    0.001174
  -10.285183    0.001198
  -10.210589    0.001222
  -10.135996    0.001247
  -10.061402    0.001273
   -9.986809    0.001300
   -9.912215    0.001327
   -9.837622    0.001356
   -9.763028    0.001385
   -9.688434    0.001415
   -9.613841    0.001447
   -9.539247    0.001479
   -9.464654    0.001513
   -9.390060    0.001547
   -9.315467    0.001583
   -9.240873    0.001620
   -9.166279    0.001659
   -9.091686    0.001699
   -9.017092    0.001740
   -8.942499    0.001783
   -8.867905    0.001828
   -8.793312    0.001874
   -8.718718    0.001922
   -8.644124    0.001972
   -8.569531    0.002024
   -8.494937    0.002078
   -8.420344    0.002135
   -8.345750    0.002194
   -8.271156    0.002255
   -8.196563    0.002319
   -8.121969    0.002385
   -8.047376    0.002455
   -7.972782    0.002528
   -7.898189    0.002604
   -7.823595    0.002683
   -7.749001    0.002767
   -7.674408    0.002854
   -7.599814    0.002946
   -7.525221    0.003042
   -7.450627    0.003144
   -7.376034    0.003250
   -7.301440    0.003362
   -7.226846    0.003480
   -7.152253    0.003604
   -7.077659    0.003736
   -7.003066    0.003875
   -6.928472    0.004022
   -6.853879    0.004177
   -6.779285    0.004342
   -6.704691    0.004517
   -6.630098    0.004704
   -6.555504    0.004902
   -6.480911    0.005113
   -6.406317    0.005339
   -6.331724    0.005580
   -6.257130    0.005839
   -6.182536    0.006116
   -6.107943    0.006414
   -6.033349    0.006735
   -5.958756    0.007081
   -5.884162    0.007456
   -5.809569    0.007862
   -5.734975    0.008303
   -5.660381    0.008783
   -5.585788    0.009308
   -5.511194    0.009883
   -5.436601    0.010514
   -5.362007    0.011210
   -5.287414    0.011979
   -5.212820    0.012834
   -5.138226    0.013787
   -5.063633    0.014854
   -4.989039    0.016055
   -4.914446    0.017414
   -4.839852    0.018961
   -4.765259    0.020732
   -4.690665    0.022775
   -4.616071    0.025149
   -4.541478    0.027933
   -4.466884    0.031230
   -4.392291    0.035177
   -4.317697    0.039964
   -4.243104    0.045852
   -4.168510    0.053217
   -4.093916    0.062607
   -4.019323    0.074845
   -3.944729    0.091189
   -3.870136    0.113569
   -3.795542    0.144793
   -3.720949    0.188252
   -3.646355    0.246476
   -3.571761    0.319604
   -3.497168    0.403849
   -3.422574    0.495343
   -3.347981    0.590882
   -3.273387    0.654163
   -3.198794    0.633690
   -3.124200    0.541949
   -3.049606    0.447260
   -2.975013    0.391898
   -2.900419    0.379003
   -2.825826    0.388977
   -2.751232    0.392329
   -2.676639    0.379116
   -2.602045    0.348441
   -2.527451    0.298214
   -2.452858    0.247822
   -2.378264    0.215113
   -2.303671    0.201761
   -2.229077    0.197586
   -2.154484    0.186196
   -2.079890    0.163392
   -2.005296    0.140767
   -1.930703    0.127219
   -1.856109    0.125058
   -1.781516    0.135015
   -1.706922    0.157487
   -1.632329    0.187289
   -1.557735    0.204547
   -1.483141    0.189652
   -1.408548    0.155348
   -1.333954    0.124405
   -1.259361    0.104829
   -1.184767    0.096435
   -1.110173    0.097872
   -1.035580    0.106718
   -0.960986    0.114904
   -0.886393    0.109805
   -0.811799    0.091420
   -0.737206    0.071398
   -0.662612    0.055941
   -0.588018    0.045233
   -0.513425    0.037979
   -0.438831    0.033072
   -0.364238    0.029800
   -0.289644    0.027748
   -0.215051    0.026707
   -0.140457    0.026622
   -0.065863    0.027579
    0.008730    0.029831
    0.083324    0.033869
    0.157917    0.040531
    0.232511    0.051096
    0.307104    0.066878
    0.381698    0.086762
    0.456292    0.101696
    0.530885    0.098357
    0.605479    0.079571
    0.680072    0.059244
    0.754666    0.043800
    0.829259    0.033212
    0.903853    0.026033
    0.978447    0.021062
    1.053040    0.017514
    1.127634    0.014903
    1.202227    0.012925
    1.276821    0.011389
    1.351414    0.010169
    1.426008    0.009180
    1.500602    0.008366
    1.575195    0.007685
    1.649789    0.007109
    1.724382    0.006617
    1.798976    0.006193
    1.873569    0.005825
    1.948163    0.005504
    2.022757    0.005224
    2.097350    0.004980
    2.171944    0.004768
    2.246537    0.004586
    2.321131    0.004434
    2.395724    0.004313
    2.470318    0.004224
    2.544912    0.004175
    2.619505    0.004173
    2.694099    0.004234
    2.768692    0.004386
    2.843286    0.004669
    2.917879    0.005154
    2.992473    0.005939
    3.067067    0.007104
    3.141660    0.008483
    3.216254    0.009284
    3.290847    0.008685
    3.365441    0.007195
    3.440034    0.005759
    3.514628    0.004696
    3.589222    0.003960
    3.663815    0.003447
    3.738409    0.003079
    3.813002    0.002804
    3.887596    0.002591
    3.962189    0.002422
    4.036783    0.002282
    4.111377    0.002165
    4.185970    0.002064
    4.260564    0.001976
    4.335157    0.001898
    4.409751    0.001828
    4.484344    0.001764
    4.558938    0.001706
    4.633532    0.001652
    4.708125    0.001602
    4.782719    0.001556
    4.857312    0.001512
    4.931906    0.001471
    5.006499    0.001432
    5.081093    0.001395
    5.155687    0.001361
    5.230280    0.001327
    5.304874    0.001296
    5.379467    0.001266
    5.454061    0.001237
    5.528654    0.001209
    5.603248    0.001182
    5.677842    0.001157
    5.752435    0.001132
    5.827029    0.001108
    5.901622    0.001085
    5.976216    0.001063
    6.050810    0.001042
    6.125403    0.001022
    6.199997    0.001002
    6.274590    0.000982
    6.349184    0.000964
    6.423777    0.000946
    6.498371    0.000928
    6.572965    0.000911
    6.647558    0.000895
    6.722152    0.000879
    6.796745    0.000863
    6.871339    0.000848
    6.945932    0.000833
    7.020526    0.000819
    7.095120    0.000805
    7.169713    0.000792
    7.244307    0.000779
    7.318900    0.000766
    7.393494    0.000753
    7.468087    0.000741
    7.542681    0.000729
    7.617275    0.000718
    7.691868    0.000706
    7.766462    0.000695
    7.841055    0.000685
    7.915649    0.000674
    7.990242    0.000664
    8.064836    0.000654
    8.139430    0.000644
    8.214023    0.000635
    8.288617    0.000626
    8.363210    0.000616
    8.437804    0.000608
    8.512397    0.000599
    8.586991    0.000590
    8.661585    0.000582
    8.736178    0.000574
    8.810772    0.000566
    8.885365    0.000558
    8.959959    0.000551
    9.034552    0.000543
    9.109146    0.000536
    9.183740    0.000529
    9.258333    0.000522
    9.332927    0.000515
    9.407520    0.000508
    9.482114    0.000501
    9.556707    0.000495
    9.631301    0.000489
    9.705895    0.000482
    9.780488    0.000476
    9.855082    0.000470
    9.929675    0.000464
   10.004269    0.000459
   10.078862    0.000453
   10.153456    0.000448
   10.228050    0.000442
   10.302643    0.000437
   10.377237    0.000432
   10.451830    0.000426
   10.526424    0.000421
   10.601017    0.000416
   10.675611    0.000412
   10.750205    0.000407
   10.824798    0.000402
   10.899392    0.000397
   10.973985    0.000393
   11.048579    0.000388
   11.123172    0.000384
   11.197766    0.000380
   11.272360    0.000376
   11.346953    0.000371
   11.421547    0.000367
   11.496140    0.000363
   11.570734    0.000359
   11.645327    0.000355
   11.719921    0.000352
   11.794515    0.000348
   11.869108    0.000344
   11.943702    0.000340
   12.018295    0.000337
   12.092889    0.000333
   12.167482    0.000330
   12.242076    0.000326
   12.316670    0.000323
   12.391263    0.000320
   12.465857    0.000317
   12.540450    0.000313
   12.615044    0.000310
   12.689637    0.000307
   12.764231    0.000304
   12.838825    0.000301
   12.913418    0.000298
   12.988012    0.000295
   13.062605    0.000292
   13.137199    0.000289
   13.211793    0.000286
   13.286386    0.000284
   13.360980    0.000281
   13.435573    0.000278
   13.510167    0.000276
   13.584760    0.000273
   13.659354    0.000271
   13.733948    0.000268
   13.808541    0.000265
   13.883135    0.000263
   13.957728    0.000261
   14.032322    0.000258
   14.106915    0.000256
   14.181509    0.000254
   14.256103    0.000251
   14.330696    0.000249
   14.405290    0.000247
   14.479883    0.000245
   14.554477    0.000242
   14.629070    0.000240
   14.703664    0.000238
   14.778258    0.000236
   14.852851    0.000234
   14.927445    0.000232
   15.002038    0.000230
   15.076632    0.000228
   15.151225    0.000226
   15.225819    0.000224
   15.300413    0.000222
   15.375006    0.000220
   15.449600    0.000218
   15.524193    0.000217
   15.598787    0.000215
   15.673380    0.000213
   15.747974    0.000211
   15.822568    0.000209
   15.897161    0.000208
   15.971755    0.000206
   16.046348    0.000204
   16.120942    0.000203
   16.195535    0.000201
   16.270129    0.000199
   16.344723    0.000198
   16.419316    0.000196
   16.493910    0.000195
   16.568503    0.000193
   16.643097    0.000192
   16.717690    0.000190
   16.792284    0.000189
   16.866878    0.000187
   16.941471    0.000186
   17.016065    0.000184
   17.090658    0.000183
   17.165252    0.000181
   17.239845    0.000180
   17.314439    0.000179
   17.389033    0.000177
   17.463626    0.000176
   17.538220    0.000175
   17.612813    0.000173
   17.687407    0.000172
   17.762000    0.000171
   17.836594    0.000170
   17.911188    0.000168
   17.985781    0.000167
   18.060375    0.000166
   18.134968    0.000165
   18.209562    0.000163
   18.284155    0.000162
   18.358749    0.000161
   18.433343    0.000160
   18.507936    0.000159
   18.582530    0.000158
   18.657123    0.000156
   18.731717    0.000155
   18.806310    0.000154
   18.880904    0.000153
   18.955498    0.000152
   19.030091    0.000151
   19.104685    0.000150
   19.179278    0.000149
   19.253872    0.000148
   19.328465    0.000147
   19.403059    0.000146
   19.477653    0.000145
   19.552246    0.000144
