# energy [eV], band-resolved DOS
  -15.858734    0.001018
  -15.792933    0.001034
  -15.727133    0.001051
  -15.661333    0.001068
  -15.595532    0.001086
  -15.529732    0.001104
  -15.463932    0.001123
  -15.398131    0.001142
  -15.332331    0.001162
  -15.266530    0.001182
  -15.200730    0.001202
  -15.134930    0.001223
  -15.069129    0.001245
  -15.003329    0.001267
  -14.937529    0.001290
  -14.871728    0.001314
  -14.805928    0.001338
  -14.740127    0.001363
  -14.674327    0.001388
  -14.608527    0.001414
  -14.542726    0.001441
  -14.476926    0.001469
  -14.411126    0.001498
  -14.345325    0.001527
  -14.279525    0.001557
  -14.213724    0.001589
  -14.147924    0.001621
  -14.082124    0.001654
  -14.016323    0.001688
  -13.950523    0.001723
  -13.884723    0.001760
  -13.818922    0.001797
  -13.753122    0.001836
  -13.687321    0.001876
  -13.621521    0.001917
  -13.555721    0.001960
  -13.489920    0.002004
  -13.424120    0.002050
  -13.358320    0.002097
  -13.292519    0.002146
  -13.226719    0.002197
  -13.160918    0.002249
  -13.095118    0.002303
  -13.029318    0.002360
  -12.963517    0.002418
  -12.897717    0.002479
  -12.831917    0.002542
  -12.766116    0.002607
  -12.700316    0.002675
  -12.634516    0.002746
  -12.568715    0.002819
  -12.502915    0.002896
  -12.437114    0.002975
  -12.371314    0.003058
  -12.305514    0.003145
  -12.239713    0.003235
  -12.173913    0.003329
  -12.108113    0.003428
  -12.042312    0.003530
  -11.976512    0.003638
  -11.910711    0.003750
  -11.844911    0.003868
  -11.779111    0.003992
  -11.713310    0.004121
  -11.647510    0.004257
  -11.581710    0.004399
  -11.515909    0.004549
  -11.450109    0.004707
  -11.384308    0.004873
  -11.318508    0.005048
  -11.252708    0.005233
  -11.186907    0.005428
  -11.121107    0.005635
  -11.055307    0.005853
  -10.989506    0.006084
  -10.923706    0.006329
  -10.857905    0.006590
  -10.792105    0.006867
  -10.726305    0.007162
  -10.660504    0.007476
  -10.594704    0.007811
  -10.528904    0.008170
  -10.463103    0.008554
  -10.397303    0.008966
  -10.331502    0.009408
  -10.265702    0.009885
  -10.199902    0.010398
  -10.134101    0.010953
  -10.068301    0.011553
  -10.002501    0.012205
   -9.936700    0.012914
   -9.870900    0.013687
   -9.805099    0.014531
   -9.739299    0.015457
   -9.673499    0.016475
   -9.607698    0.017598
   -9.541898    0.018841
   -9.476098    0.020221
   -9.410297    0.021761
   -9.344497    0.023486
   -9.278696    0.025426
   -9.212896    0.027621
   -9.147096    0.030117
   -9.081295    0.032973
   -9.015495    0.036263
   -8.949695    0.040081
   -8.883894    0.044549
   -8.818094    0.049825
   -8.752293    0.056122
   -8.686493    0.063727
   -8.620693    0.073035
   -8.554892    0.084605
   -8.489092    0.099238
   -8.423292    0.118107
   -8.357491    0.142939
   -8.291691    0.176234
   -8.225891    0.221300
   -8.160090    0.281342
   -8.094290    0.356336
   -8.028489    0.439816
   -7.962689    0.523307
   -7.896889    0.600712
   -7.831088    0.665738
   -7.765288    0.723818
   -7.699488    0.799187
   -7.633687    0.911542
   -7.567887    1.039841
   -7.502086    1.107564
   -7.436286    1.044185
   -7.370486    0.870326
   -7.304685    0.670766
   -7.238885    0.503410
   -7.173085    0.379879
   -7.107284    0.292087
   -7.041484    0.229590
   -6.975683    0.184340
   -6.909883    0.150864
   -6.844083    0.125552
   -6.778282    0.106019
   -6.712482    0.090665
   -6.646682    0.078394
   -6.580881    0.068442
   -6.515081    0.060264
   -6.449280    0.053465
   -6.383480    0.047753
   -6.317680    0.042909
   -6.251879    0.038767
   -6.186079    0.035196
   -6.120279    0.032098
   -6.054478    0.029391
   -5.988678    0.027013
   -5.922877    0.024913
   -5.857077    0.023049
   -5.791277    0.021387
   -5.725476    0.019899
   -5.659676    0.018561
   -5.593876    0.017353
   -5.528075    0.016260
   -5.462275    0.015267
   -5.396474    0.014363
   -5.330674    0.013537
   -5.264874    0.012780
   -5.199073    0.012085
   -5.133273    0.011445
   -5.067473    0.010855
   -5.001672    0.010309
   -4.935872    0.009804
   -4.870071    0.009335
   -4.804271    0.008898
   -4.738471    0.008492
   -4.672670    0.008113
   -4.606870    0.007759
   -4.541070    0.007427
   -4.475269    0.007117
   -4.409469    0.006825
   -4.343668    0.006551
   -4.277868    0.006293
   -4.212068    0.006051
   -4.146267    0.005822
   -4.080467    0.005605
   -4.014667    0.005401
   -3.948866    0.005207
   -3.883066    0.005024
   -3.817266    0.004851
   -3.751465    0.004686
   -3.685665    0.004529
   -3.619864    0.004380
   -3.554064    0.004239
   -3.488264    0.004104
   -3.422463    0.003975
   -3.356663    0.003853
   -3.290863    0.003736
   -3.225062    0.003624
   -3.159262    0.003517
   -3.093461    0.003415
   -3.027661    0.003317
   -2.961861    0.003224
   -2.896060    0.003134
   -2.830260    0.003048
   -2.764460    0.002966
   -2.698659    0.002886
   -2.632859    0.002810
   -2.567058    0.002737
   -2.501258    0.002667
   -2.435458    0.002599
   -2.369657    0.002534
   -2.303857    0.002472
   -2.238057    0.002411
   -2.172256    0.002353
   -2.106456    0.002297
   -2.040655    0.002243
   -1.974855    0.002191
   -1.909055    0.002140
   -1.843254    0.002092
   -1.777454    0.002044
   -1.711654    0.001999
   -1.645853    0.001955
   -1.580053    0.001912
   -1.514252    0.001871
   -1.448452    0.001831
   -1.382652    0.001793
   -1.316851    0.001755
   -1.251051    0.001719
   -1.185251    0.001684
   -1.119450    0.001650
   -1.053650    0.001617
   -0.987849    0.001585
   -0.922049    0.001554
   -0.856249    0.001524
   -0.790448    0.001494
   -0.724648    0.001466
   -0.658848    0.001438
   -0.593047    0.001411
   -0.527247    0.001385
   -0.461446    0.001360
   -0.395646    0.001335
   -0.329846    0.001311
   -0.264045    0.001288
   -0.198245    0.001265
   -0.132445    0.001243
   -0.066644    0.001221
   -0.000844    0.001200
    0.064957    0.001179
    0.130757    0.001159
    0.196557    0.001140
    0.262358    0.001121
    0.328158    0.001102
    0.393958    0.001084
    0.459759    0.001067
    0.525559    0.001049
    0.591359    0.001033
    0.657160    0.001016
    0.722960    0.001000
    0.788761    0.000985
    0.854561    0.000969
    0.920361    0.000954
    0.986162    0.000940
    1.051962    0.000926
    1.117762    0.000912
    1.183563    0.000898
    1.249363    0.000885
    1.315164    0.000872
    1.380964    0.000859
    1.446764    0.000846
    1.512565    0.000834
    1.578365    0.000822
    1.644165    0.000811
    1.709966    0.000799
    1.775766    0.000788
    1.841567    0.000777
    1.907367    0.000766
    1.973167    0.000756
    2.038968    0.000746
    2.104768    0.000736
    2.170568    0.000726
    2.236369    0.000716
    2.302169    0.000707
    2.367970    0.000697
    2.433770    0.000688
    2.499570    0.000679
    2.565371    0.000670
    2.631171    0.000662
    2.696971    0.000653
    2.762772    0.000645
    2.828572    0.000637
    2.894373    0.000629
    2.960173    0.000621
    3.025973    0.000614
    3.091774    0.000606
    3.157574    0.000599
    3.223374    0.000591
    3.289175    0.000584
    3.354975    0.000577
    3.420776    0.000570
    3.486576    0.000564
    3.552376    0.000557
    3.618177    0.000550
    3.683977    0.000544
    3.749777    0.000538
    3.815578    0.000532
    3.881378    0.000526
    3.947179    0.000520
    4.012979    0.000514
    4.078779    0.000508
    4.144580    0.000502
    4.210380    0.000497
    4.276180    0.000491
    4.341981    0.000486
    4.407781    0.000480
    4.473582    0.000475
    4.539382    0.000470
    4.605182    0.000465
    4.670983    0.000460
    4.736783    0.000455
    4.802583    0.000450
    4.868384    0.000446
    4.934184    0.000441
    4.999984    0.000436
    5.065785    0.000432
    5.131585    0.000427
    5.197386    0.000423
    5.263186    0.000419
    5.328986    0.000414
    5.394787    0.000410
    5.460587    0.000406
    5.526387    0.000402
    5.592188    0.000398
    5.657988    0.000394
    5.723789    0.000390
    5.789589    0.000386
    5.855389    0.000383
    5.921190    0.000379
    5.986990    0.000375
    6.052790    0.000372
    6.118591    0.000368
    6.184391    0.000365
    6.250192    0.000361
    6.315992    0.000358
    6.381792    0.000354
    6.447593    0.000351
    6.513393    0.000348
    6.579193    0.000345
    6.644994    0.000341
    6.710794    0.000338
    6.776595    0.000335
    6.842395    0.000332
    6.908195    0.000329
    6.973996    0.000326
    7.039796    0.000323
    7.105596    0.000320
    7.171397    0.000317
    7.237197    0.000315
    7.302998    0.000312
    7.368798    0.000309
    7.434598    0.000306
    7.500399    0.000304
    7.566199    0.000301
    7.631999    0.000299
    7.697800    0.000296
    7.763600    0.000293
    7.829401    0.000291
    7.895201    0.000289
    7.961001    0.000286
    8.026802    0.000284
    8.092602    0.000281
    8.158402    0.000279
    8.224203    0.000277
    8.290003    0.000274
    8.355804    0.000272
    8.421604    0.000270
    8.487404    0.000268
    8.553205    0.000265
    8.619005    0.000263
    8.684805    0.000261
    8.750606    0.000259
    8.816406    0.000257
    8.882206    0.000255
    8.948007    0.000253
    9.013807    0.000251
    9.079608    0.000249
    9.145408    0.000247
    9.211208    0.000245
    9.277009    0.000243
    9.342809    0.000241
    9.408609    0.000239
    9.474410    0.000238
    9.540210    0.000236
    9.606011    0.000234
    9.671811    0.000232
    9.737611    0.000230
    9.803412    0.000229
    9.869212    0.000227
    9.935012    0.000225
   10.000813    0.000224
   10.066613    0.000222
   10.132414    0.000220
   10.198214    0.000219
   10.264014    0.000217
   10.329815    0.000215
   10.395615    0.000214
   10.461415    0.000212
   10.527216    0.000211
   10.593016    0.000209
   10.658817    0.000208
   10.724617    0.000206
   10.790417    0.000205
   10.856218    0.000203
   10.922018    0.000202
   10.987818    0.000201
   11.053619    0.000199
   11.119419    0.000198
   11.185220    0.000196
   11.251020    0.000195
   11.316820    0.000194
   11.382621    0.000192
   11.448421    0.000191
   11.514221    0.000190
   11.580022    0.000188
   11.645822    0.000187
   11.711623    0.000186
   11.777423    0.000184
   11.843223    0.000183
   11.909024    0.000182
   11.974824    0.000181
   12.040624    0.000180
   12.106425    0.000178
   12.172225    0.000177
   12.238026    0.000176
   12.303826    0.000175
   12.369626    0.000174
   12.435427    0.000173
   12.501227    0.000171
   12.567027    0.000170
   12.632828    0.000169
   12.698628    0.000168
   12.764429    0.000167
   12.830229    0.000166
   12.896029    0.000165
   12.961830    0.000164
   13.027630    0.000163
   13.093430    0.000162
   13.159231    0.000161
   13.225031    0.000160
   13.290831    0.000159
   13.356632    0.000158
   13.422432    0.000157
   13.488233    0.000156
   13.554033    0.000155
   13.619833    0.000154
   13.685634    0.000153
   13.751434    0.000152
   13.817234    0.000151
   13.883035    0.000150
   13.948835    0.000149
   14.014636    0.000148
   14.080436    0.000147
   14.146236    0.000146
   14.212037    0.000146
   14.277837    0.000145
   14.343637    0.000144
   14.409438    0.000143
   14.475238    0.000142
   14.541039    0.000141
   14.606839    0.000140
   14.672639    0.000140
   14.738440    0.000139
   14.804240    0.000138
   14.870040    0.000137
   14.935841    0.000136
   15.001641    0.000136
   15.067442    0.000135
   15.133242    0.000134
   15.199042    0.000133
   15.264843    0.000133
   15.330643    0.000132
   15.396443    0.000131
   15.462244    0.000130
   15.528044    0.000130
   15.593845    0.000129
   15.659645    0.000128
   15.725445    0.000127
   15.791246    0.000127
   15.857046    0.000126
   15.922846    0.000125
   15.988647    0.000125
   16.054447    0.000124
   16.120248    0.000123
   16.186048    0.000122
   16.251848    0.000122
   16.317649    0.000121
   16.383449    0.000120
   16.449249    0.000120
   16.515050    0.000119
   16.580850    0.000118
   16.646651    0.000118
   16.712451    0.000117
   16.778251    0.000117
   16.844052    0.000116
   16.909852    0.000115
   16.975652    0.000115
