# energy [eV], band-resolved DOS
  -14.005023    0.000165
  -13.945205    0.000166
  -13.885388    0.000167
  -13.825570    0.000168
  -13.765752    0.000169
  -13.705934    0.000170
  -13.646117    0.000171
  -13.586299    0.000172
  -13.526481    0.000173
  -13.466664    0.000174
  -13.406846    0.000175
  -13.347028    0.000176
  -13.287210    0.000177
  -13.227393    0.000178
  -13.167575    0.000179
  -13.107757    0.000180
  -13.047940    0.000181
  -12.988122    0.000183
  -12.928304    0.000184
  -12.868486    0.000185
  -12.808669    0.000186
  -12.748851    0.000187
  -12.689033    0.000188
  -12.629216    0.000189
  -12.569398    0.000191
  -12.509580    0.000192
  -12.449762    0.000193
  -12.389945    0.000194
  -12.330127    0.000196
  -12.270309    0.000197
  -12.210491    0.000198
  -12.150674    0.000199
  -12.090856    0.000201
  -12.031038    0.000202
  -11.971221    0.000203
  -11.911403    0.000205
  -11.851585    0.000206
  -11.791767    0.000207
  -11.731950    0.000209
  -11.672132    0.000210
  -11.612314    0.000211
  -11.552497    0.000213
  -11.492679    0.000214
  -11.432861    0.000216
  -11.373043    0.000217
  -11.313226    0.000219
  -11.253408    0.000220
  -11.193590    0.000221
  -11.133773    0.000223
  -11.073955    0.000225
  -11.014137    0.000226
  -10.954319    0.000228
  -10.894502    0.000229
  -10.834684    0.000231
  -10.774866    0.000232
  -10.715048    0.000234
  -10.655231    0.000236
  -10.595413    0.000237
  -10.535595    0.000239
  -10.475778    0.000241
  -10.415960    0.000242
  -10.356142    0.000244
  -10.296324    0.000246
  -10.236507    0.000248
  -10.176689    0.000249
  -10.116871    0.000251
  -10.057054    0.000253
   -9.997236    0.000255
   -9.937418    0.000257
   -9.877600    0.000259
   -9.817783    0.000261
   -9.757965    0.000262
   -9.698147    0.000264
   -9.638330    0.000266
   -9.578512    0.000268
   -9.518694    0.000270
   -9.458876    0.000272
   -9.399059    0.000274
   -9.339241    0.000277
   -9.279423    0.000279
   -9.219605    0.000281
   -9.159788    0.000283
   -9.099970    0.000285
   -9.040152    0.000287
   -8.980335    0.000290
   -8.920517    0.000292
   -8.860699    0.000294
   -8.800881    0.000296
   -8.741064    0.000299
   -8.681246    0.000301
   -8.621428    0.000303
   -8.561611    0.000306
   -8.501793    0.000308
   -8.441975    0.000311
   -8.382157    0.000313
   -8.322340    0.000316
   -8.262522    0.000318
   -8.202704    0.000321
   -8.142887    0.000324
   -8.083069    0.000326
   -8.023251    0.000329
   -7.963433    0.000332
   -7.903616    0.000335
   -7.843798    0.000337
   -7.783980    0.000340
   -7.724163    0.000343
   -7.664345    0.000346
   -7.604527    0.000349
   -7.544709    0.000352
   -7.484892    0.000355
   -7.425074    0.000358
   -7.365256    0.000361
   -7.305438    0.000364
   -7.245621    0.000368
   -7.185803    0.000371
   -7.125985    0.000374
   -7.066168    0.000377
   -7.006350    0.000381
   -6.946532    0.000384
   -6.886714    0.000388
   -6.826897    0.000391
   -6.767079    0.000395
   -6.707261    0.000398
   -6.647444    0.000402
   -6.587626    0.000406
   -6.527808    0.000409
   -6.467990    0.000413
   -6.408173    0.000417
   -6.348355    0.000421
   -6.288537    0.000425
   -6.228720    0.000429
   -6.168902    0.000433
   -6.109084    0.000437
   -6.049266    0.000441
   -5.989449    0.000445
   -5.929631    0.000450
   -5.869813    0.000454
   -5.809995    0.000459
   -5.750178    0.000463
   -5.690360    0.000468
   -5.630542    0.000472
   -5.570725    0.000477
   -5.510907    0.000482
   -5.451089    0.000487
   -5.391271    0.000492
   -5.331454    0.000497
   -5.271636    0.000502
   -5.211818    0.000507
   -5.152001    0.000512
   -5.092183    0.000518
   -5.032365    0.000523
   -4.972547    0.000528
   -4.912730    0.000534
   -4.852912    0.000540
   -4.793094    0.000545
   -4.733277    0.000551
   -4.673459    0.000557
   -4.613641    0.000563
   -4.553823    0.000569
   -4.494006    0.000576
   -4.434188    0.000582
   -4.374370    0.000589
   -4.314552    0.000595
   -4.254735    0.000602
   -4.194917    0.000609
   -4.135099    0.000616
   -4.075282    0.000623
   -4.015464    0.000630
   -3.955646    0.000637
   -3.895828    0.000644
   -3.836011    0.000652
   -3.776193    0.000660
   -3.716375    0.000667
   -3.656558    0.000675
   -3.596740    0.000683
   -3.536922    0.000692
   -3.477104    0.000700
   -3.417287    0.000709
   -3.357469    0.000717
   -3.297651    0.000726
   -3.237834    0.000735
   -3.178016    0.000744
   -3.118198    0.000754
   -3.058380    0.000763
   -2.998563    0.000773
   -2.938745    0.000783
   -2.878927    0.000793
   -2.819109    0.000803
   -2.759292    0.000814
   -2.699474    0.000825
   -2.639656    0.000836
   -2.579839    0.000847
   -2.520021    0.000858
   -2.460203    0.000870
   -2.400385    0.000882
   -2.340568    0.000894
   -2.280750    0.000906
   -2.220932    0.000919
   -2.161115    0.000931
   -2.101297    0.000945
   -2.041479    0.000958
   -1.981661    0.000972
   -1.921844    0.000986
   -1.862026    0.001000
   -1.802208    0.001015
   -1.742391    0.001030
   -1.682573    0.001045
   -1.622755    0.001061
   -1.562937    0.001077
   -1.503120    0.001093
   -1.443302    0.001110
   -1.383484    0.001127
   -1.323667    0.001145
   -1.263849    0.001162
   -1.204031    0.001181
   -1.144213    0.001200
   -1.084396    0.001219
   -1.024578    0.001239
   -0.964760    0.001259
   -0.904942    0.001280
   -0.845125    0.001301
   -0.785307    0.001323
   -0.725489    0.001345
   -0.665672    0.001368
   -0.605854    0.001392
   -0.546036    0.001416
   -0.486218    0.001441
   -0.426401    0.001466
   -0.366583    0.001492
   -0.306765    0.001519
   -0.246948    0.001547
   -0.187130    0.001575
   -0.127312    0.001604
   -0.067494    0.001634
   -0.007677    0.001665
    0.052141    0.001697
    0.111959    0.001730
    0.171776    0.001763
    0.231594    0.001798
    0.291412    0.001834
    0.351230    0.001870
    0.411047    0.001908
    0.470865    0.001947
    0.530683    0.001988
    0.590501    0.002029
    0.650318    0.002072
    0.710136    0.002116
    0.769954    0.002162
    0.829771    0.002209
    0.889589    0.002258
    0.949407    0.002309
    1.009225    0.002361
    1.069042    0.002415
    1.128860    0.002471
    1.188678    0.002529
    1.248495    0.002589
    1.308313    0.002651
    1.368131    0.002716
    1.427949    0.002783
    1.487766    0.002853
    1.547584    0.002925
    1.607402    0.003000
    1.667219    0.003078
    1.727037    0.003159
    1.786855    0.003244
    1.846673    0.003332
    1.906490    0.003424
    1.966308    0.003520
    2.026126    0.003620
    2.085944    0.003724
    2.145761    0.003833
    2.205579    0.003947
    2.265397    0.004066
    2.325214    0.004192
    2.385032    0.004323
    2.444850    0.004460
    2.504668    0.004605
    2.564485    0.004757
    2.624303    0.004916
    2.684121    0.005085
    2.743938    0.005262
    2.803756    0.005449
    2.863574    0.005647
    2.923392    0.005857
    2.983209    0.006079
    3.043027    0.006314
    3.102845    0.006564
    3.162662    0.006830
    3.222480    0.007114
    3.282298    0.007417
    3.342116    0.007742
    3.401933    0.008090
    3.461751    0.008464
    3.521569    0.008866
    3.581387    0.009302
    3.641204    0.009773
    3.701022    0.010286
    3.760840    0.010845
    3.820657    0.011458
    3.880475    0.012133
    3.940293    0.012879
    4.000111    0.013711
    4.059928    0.014642
    4.119746    0.015696
    4.179564    0.016898
    4.239381    0.018287
    4.299199    0.019912
    4.359017    0.021845
    4.418835    0.024186
    4.478652    0.027076
    4.538470    0.030703
    4.598288    0.035275
    4.658105    0.040886
    4.717923    0.047136
    4.777741    0.052758
    4.837559    0.056399
    4.897376    0.058490
    4.957194    0.060985
    5.017012    0.065520
    5.076829    0.072874
    5.136647    0.083063
    5.196465    0.094826
    5.256283    0.105252
    5.316100    0.112160
    5.375918    0.117458
    5.435736    0.125408
    5.495554    0.139378
    5.555371    0.161720
    5.615189    0.194689
    5.675007    0.240204
    5.734824    0.297146
    5.794642    0.355965
    5.854460    0.398359
    5.914278    0.413427
    5.974095    0.411538
    6.033913    0.412843
    6.093731    0.427919
    6.153548    0.449299
    6.213366    0.458807
    6.273184    0.444546
    6.333002    0.409773
    6.392819    0.370711
    6.452637    0.344396
    6.512455    0.339813
    6.572272    0.360213
    6.632090    0.406251
    6.691908    0.473442
    6.751726    0.544823
    6.811543    0.590860
    6.871361    0.590362
    6.931179    0.553288
    6.990997    0.509887
    7.050814    0.477724
    7.110632    0.451201
    7.170450    0.419385
    7.230267    0.381439
    7.290085    0.341239
    7.349903    0.301657
    7.409721    0.262246
    7.469538    0.221317
    7.529356    0.181582
    7.589174    0.147418
    7.648991    0.120388
    7.708809    0.099687
    7.768627    0.083861
    7.828445    0.071614
    7.888262    0.061974
    7.948080    0.054255
    8.007898    0.047972
    8.067715    0.042782
    8.127533    0.038439
    8.187351    0.034762
    8.247169    0.031618
    8.306986    0.028904
    8.366804    0.026544
    8.426622    0.024476
    8.486440    0.022651
    8.546257    0.021033
    8.606075    0.019590
    8.665893    0.018297
    8.725710    0.017133
    8.785528    0.016080
    8.845346    0.015126
    8.905164    0.014257
    8.964981    0.013464
    9.024799    0.012737
    9.084617    0.012069
    9.144434    0.011454
    9.204252    0.010887
    9.264070    0.010361
    9.323888    0.009874
    9.383705    0.009422
    9.443523    0.009000
    9.503341    0.008607
    9.563158    0.008240
    9.622976    0.007896
    9.682794    0.007574
    9.742612    0.007272
    9.802429    0.006988
    9.862247    0.006720
    9.922065    0.006468
    9.981882    0.006230
   10.041700    0.006005
   10.101518    0.005793
   10.161336    0.005591
   10.221153    0.005400
   10.280971    0.005219
   10.340789    0.005047
   10.400607    0.004884
   10.460424    0.004728
   10.520242    0.004580
   10.580060    0.004439
   10.639877    0.004304
   10.699695    0.004176
   10.759513    0.004053
   10.819331    0.003936
   10.879148    0.003824
   10.938966    0.003716
   10.998784    0.003613
   11.058601    0.003514
   11.118419    0.003420
   11.178237    0.003329
   11.238055    0.003242
   11.297872    0.003158
   11.357690    0.003077
   11.417508    0.003000
   11.477325    0.002925
   11.537143    0.002854
   11.596961    0.002784
   11.656779    0.002718
   11.716596    0.002654
   11.776414    0.002592
   11.836232    0.002532
   11.896050    0.002474
   11.955867    0.002418
   12.015685    0.002364
   12.075503    0.002312
   12.135320    0.002262
   12.195138    0.002213
   12.254956    0.002166
   12.314774    0.002120
   12.374591    0.002076
   12.434409    0.002033
   12.494227    0.001992
   12.554044    0.001951
   12.613862    0.001912
   12.673680    0.001875
   12.733498    0.001838
   12.793315    0.001802
   12.853133    0.001767
   12.912951    0.001734
   12.972768    0.001701
   13.032586    0.001669
   13.092404    0.001638
   13.152222    0.001608
   13.212039    0.001579
   13.271857    0.001551
   13.331675    0.001523
   13.391493    0.001496
   13.451310    0.001470
   13.511128    0.001445
   13.570946    0.001420
   13.630763    0.001396
   13.690581    0.001372
   13.750399    0.001349
   13.810217    0.001327
   13.870034    0.001305
   13.929852    0.001283
   13.989670    0.001263
   14.049487    0.001242
   14.109305    0.001222
   14.169123    0.001203
   14.228941    0.001184
   14.288758    0.001166
   14.348576    0.001148
   14.408394    0.001130
   14.468211    0.001113
   14.528029    0.001096
   14.587847    0.001080
   14.647665    0.001064
   14.707482    0.001048
   14.767300    0.001033
   14.827118    0.001018
   14.886936    0.001003
   14.946753    0.000989
   15.006571    0.000975
   15.066389    0.000961
   15.126206    0.000947
   15.186024    0.000934
   15.245842    0.000921
   15.305660    0.000909
   15.365477    0.000896
   15.425295    0.000884
   15.485113    0.000872
   15.544930    0.000861
   15.604748    0.000849
   15.664566    0.000838
   15.724384    0.000827
   15.784201    0.000816
   15.844019    0.000806
