# energy [eV], band-resolved DOS
  -14.005023    0.000191
  -13.945205    0.000192
  -13.885388    0.000194
  -13.825570    0.000195
  -13.765752    0.000196
  -13.705934    0.000197
  -13.646117    0.000199
  -13.586299    0.000200
  -13.526481    0.000201
  -13.466664    0.000202
  -13.406846    0.000204
  -13.347028    0.000205
  -13.287210    0.000206
  -13.227393    0.000208
  -13.167575    0.000209
  -13.107757    0.000211
  -13.047940    0.000212
  -12.988122    0.000213
  -12.928304    0.000215
  -12.868486    0.000216
  -12.808669    0.000218
  -12.748851    0.000219
  -12.689033    0.000221
  -12.629216    0.000222
  -12.569398    0.000224
  -12.509580    0.000225
  -12.449762    0.000227
  -12.389945    0.000228
  -12.330127    0.000230
  -12.270309    0.000231
  -12.210491    0.000233
  -12.150674    0.000235
  -12.090856    0.000236
  -12.031038    0.000238
  -11.971221    0.000240
  -11.911403    0.000241
  -11.851585    0.000243
  -11.791767    0.000245
  -11.731950    0.000247
  -11.672132    0.000248
  -11.612314    0.000250
  -11.552497    0.000252
  -11.492679    0.000254
  -11.432861    0.000256
  -11.373043    0.000258
  -11.313226    0.000259
  -11.253408    0.000261
  -11.193590    0.000263
  -11.133773    0.000265
  -11.073955    0.000267
  -11.014137    0.000269
  -10.954319    0.000271
  -10.894502    0.000273
  -10.834684    0.000275
  -10.774866    0.000277
  -10.715048    0.000280
  -10.655231    0.000282
  -10.595413    0.000284
  -10.535595    0.000286
  -10.475778    0.000288
  -10.415960    0.000291
  -10.356142    0.000293
  -10.296324    0.000295
  -10.236507    0.000297
  -10.176689    0.000300
  -10.116871    0.000302
  -10.057054    0.000305
   -9.997236    0.000307
   -9.937418    0.000309
   -9.877600    0.000312
   -9.817783    0.000314
   -9.757965    0.000317
   -9.698147    0.000320
   -9.638330    0.000322
   -9.578512    0.000325
   -9.518694    0.000328
   -9.458876    0.000330
   -9.399059    0.000333
   -9.339241    0.000336
   -9.279423    0.000339
   -9.219605    0.000341
   -9.159788    0.000344
   -9.099970    0.000347
   -9.040152    0.000350
   -8.980335    0.000353
   -8.920517    0.000356
   -8.860699    0.000359
   -8.800881    0.000363
   -8.741064    0.000366
   -8.681246    0.000369
   -8.621428    0.000372
   -8.561611    0.000375
   -8.501793    0.000379
   -8.441975    0.000382
   -8.382157    0.000386
   -8.322340    0.000389
   -8.262522    0.000393
   -8.202704    0.000396
   -8.142887    0.000400
   -8.083069    0.000403
   -8.023251    0.000407
   -7.963433    0.000411
   -7.903616    0.000415
   -7.843798    0.000419
   -7.783980    0.000423
   -7.724163    0.000427
   -7.664345    0.000431
   -7.604527    0.000435
   -7.544709    0.000439
   -7.484892    0.000443
   -7.425074    0.000447
   -7.365256    0.000452
   -7.305438    0.000456
   -7.245621    0.000461
   -7.185803    0.000465
   -7.125985    0.000470
   -7.066168    0.000474
   -7.006350    0.000479
   -6.946532    0.000484
   -6.886714    0.000489
   -6.826897    0.000494
   -6.767079    0.000499
   -6.707261    0.000504
   -6.647444    0.000509
   -6.587626    0.000514
   -6.527808    0.000520
   -6.467990    0.000525
   -6.408173    0.000531
   -6.348355    0.000536
   -6.288537    0.000542
   -6.228720    0.000548
   -6.168902    0.000554
   -6.109084    0.000560
   -6.049266    0.000566
   -5.989449    0.000572
   -5.929631    0.000578
   -5.869813    0.000585
   -5.809995    0.000591
   -5.750178    0.000598
   -5.690360    0.000605
   -5.630542    0.000612
   -5.570725    0.000618
   -5.510907    0.000626
   -5.451089    0.000633
   -5.391271    0.000640
   -5.331454    0.000648
   -5.271636    0.000655
   -5.211818    0.000663
   -5.152001    0.000671
   -5.092183    0.000679
   -5.032365    0.000687
   -4.972547    0.000695
   -4.912730    0.000704
   -4.852912    0.000712
   -4.793094    0.000721
   -4.733277    0.000730
   -4.673459    0.000739
   -4.613641    0.000748
   -4.553823    0.000758
   -4.494006    0.000767
   -4.434188    0.000777
   -4.374370    0.000787
   -4.314552    0.000797
   -4.254735    0.000808
   -4.194917    0.000818
   -4.135099    0.000829
   -4.075282    0.000840
   -4.015464    0.000851
   -3.955646    0.000863
   -3.895828    0.000875
   -3.836011    0.000887
   -3.776193    0.000899
   -3.716375    0.000911
   -3.656558    0.000924
   -3.596740    0.000937
   -3.536922    0.000950
   -3.477104    0.000964
   -3.417287    0.000978
   -3.357469    0.000992
   -3.297651    0.001006
   -3.237834    0.001021
   -3.178016    0.001036
   -3.118198    0.001051
   -3.058380    0.001067
   -2.998563    0.001083
   -2.938745    0.001100
   -2.878927    0.001117
   -2.819109    0.001134
   -2.759292    0.001152
   -2.699474    0.001170
   -2.639656    0.001189
   -2.579839    0.001208
   -2.520021    0.001227
   -2.460203    0.001247
   -2.400385    0.001267
   -2.340568    0.001288
   -2.280750    0.001310
   -2.220932    0.001332
   -2.161115    0.001354
   -2.101297    0.001378
   -2.041479    0.001401
   -1.981661    0.001426
   -1.921844    0.001451
   -1.862026    0.001477
   -1.802208    0.001503
   -1.742391    0.001530
   -1.682573    0.001558
   -1.622755    0.001587
   -1.562937    0.001616
   -1.503120    0.001647
   -1.443302    0.001678
   -1.383484    0.001710
   -1.323667    0.001743
   -1.263849    0.001777
   -1.204031    0.001812
   -1.144213    0.001848
   -1.084396    0.001885
   -1.024578    0.001924
   -0.964760    0.001963
   -0.904942    0.002004
   -0.845125    0.002046
   -0.785307    0.002089
   -0.725489    0.002134
   -0.665672    0.002181
   -0.605854    0.002228
   -0.546036    0.002278
   -0.486218    0.002329
   -0.426401    0.002382
   -0.366583    0.002437
   -0.306765    0.002494
   -0.246948    0.002553
   -0.187130    0.002614
   -0.127312    0.002677
   -0.067494    0.002742
   -0.007677    0.002810
    0.052141    0.002881
    0.111959    0.002955
    0.171776    0.003031
    0.231594    0.003110
    0.291412    0.003193
    0.351230    0.003279
    0.411047    0.003369
    0.470865    0.003462
    0.530683    0.003560
    0.590501    0.003662
    0.650318    0.003769
    0.710136    0.003880
    0.769954    0.003997
    0.829771    0.004119
    0.889589    0.004247
    0.949407    0.004381
    1.009225    0.004523
    1.069042    0.004671
    1.128860    0.004828
    1.188678    0.004993
    1.248495    0.005167
    1.308313    0.005350
    1.368131    0.005545
    1.427949    0.005751
    1.487766    0.005970
    1.547584    0.006203
    1.607402    0.006452
    1.667219    0.006717
    1.727037    0.007001
    1.786855    0.007307
    1.846673    0.007636
    1.906490    0.007993
    1.966308    0.008380
    2.026126    0.008804
    2.085944    0.009271
    2.145761    0.009789
    2.205579    0.010369
    2.265397    0.011028
    2.325214    0.011786
    2.385032    0.012676
    2.444850    0.013739
    2.504668    0.015033
    2.564485    0.016619
    2.624303    0.018511
    2.684121    0.020547
    2.743938    0.022265
    2.803756    0.023188
    2.863574    0.023433
    2.923392    0.023573
    2.983209    0.024028
    3.043027    0.024940
    3.102845    0.026328
    3.162662    0.028197
    3.222480    0.030581
    3.282298    0.033554
    3.342116    0.037246
    3.401933    0.041855
    3.461751    0.047675
    3.521569    0.055142
    3.581387    0.064888
    3.641204    0.077787
    3.701022    0.094884
    3.760840    0.116880
    3.820657    0.142599
    3.880475    0.166835
    3.940293    0.181389
    4.000111    0.181705
    4.059928    0.171458
    4.119746    0.159164
    4.179564    0.151576
    4.239381    0.151498
    4.299199    0.159691
    4.359017    0.176750
    4.418835    0.203823
    4.478652    0.242429
    4.538470    0.293621
    4.598288    0.357744
    4.658105    0.436034
    4.717923    0.529587
    4.777741    0.634095
    4.837559    0.735205
    4.897376    0.802607
    4.957194    0.801510
    5.017012    0.729696
    5.076829    0.625226
    5.136647    0.524970
    5.196465    0.440401
    5.256283    0.371840
    5.316100    0.321205
    5.375918    0.290139
    5.435736    0.278528
    5.495554    0.285888
    5.555371    0.311396
    5.615189    0.350847
    5.675007    0.392608
    5.734824    0.421083
    5.794642    0.425507
    5.854460    0.398800
    5.914278    0.343620
    5.974095    0.278111
    6.033913    0.219320
    6.093731    0.173163
    6.153548    0.138680
    6.213366    0.113120
    6.273184    0.093973
    6.333002    0.079377
    6.392819    0.068037
    6.452637    0.059062
    6.512455    0.051836
    6.572272    0.045927
    6.632090    0.041028
    6.691908    0.036917
    6.751726    0.033429
    6.811543    0.030440
    6.871361    0.027857
    6.931179    0.025607
    6.990997    0.023633
    7.050814    0.021891
    7.110632    0.020344
    7.170450    0.018964
    7.230267    0.017725
    7.290085    0.016610
    7.349903    0.015601
    7.409721    0.014685
    7.469538    0.013851
    7.529356    0.013088
    7.589174    0.012390
    7.648991    0.011747
    7.708809    0.011155
    7.768627    0.010608
    7.828445    0.010102
    7.888262    0.009632
    7.948080    0.009195
    8.007898    0.008788
    8.067715    0.008409
    8.127533    0.008054
    8.187351    0.007721
    8.247169    0.007409
    8.306986    0.007117
    8.366804    0.006841
    8.426622    0.006582
    8.486440    0.006337
    8.546257    0.006106
    8.606075    0.005888
    8.665893    0.005682
    8.725710    0.005486
    8.785528    0.005301
    8.845346    0.005124
    8.905164    0.004957
    8.964981    0.004798
    9.024799    0.004647
    9.084617    0.004502
    9.144434    0.004365
    9.204252    0.004233
    9.264070    0.004108
    9.323888    0.003988
    9.383705    0.003874
    9.443523    0.003764
    9.503341    0.003659
    9.563158    0.003559
    9.622976    0.003462
    9.682794    0.003370
    9.742612    0.003281
    9.802429    0.003196
    9.862247    0.003114
    9.922065    0.003035
    9.981882    0.002959
   10.041700    0.002886
   10.101518    0.002816
   10.161336    0.002748
   10.221153    0.002683
   10.280971    0.002620
   10.340789    0.002559
   10.400607    0.002500
   10.460424    0.002443
   10.520242    0.002389
   10.580060    0.002336
   10.639877    0.002285
   10.699695    0.002235
   10.759513    0.002187
   10.819331    0.002141
   10.879148    0.002096
   10.938966    0.002053
   10.998784    0.002011
   11.058601    0.001970
   11.118419    0.001930
   11.178237    0.001892
   11.238055    0.001855
   11.297872    0.001818
   11.357690    0.001783
   11.417508    0.001749
   11.477325    0.001716
   11.537143    0.001684
   11.596961    0.001653
   11.656779    0.001622
   11.716596    0.001593
   11.776414    0.001564
   11.836232    0.001536
   11.896050    0.001509
   11.955867    0.001482
   12.015685    0.001456
   12.075503    0.001431
   12.135320    0.001407
   12.195138    0.001383
   12.254956    0.001360
   12.314774    0.001337
   12.374591    0.001315
   12.434409    0.001293
   12.494227    0.001272
   12.554044    0.001252
   12.613862    0.001232
   12.673680    0.001212
   12.733498    0.001193
   12.793315    0.001174
   12.853133    0.001156
   12.912951    0.001138
   12.972768    0.001121
   13.032586    0.001104
   13.092404    0.001087
   13.152222    0.001071
   13.212039    0.001055
   13.271857    0.001040
   13.331675    0.001025
   13.391493    0.001010
   13.451310    0.000995
   13.511128    0.000981
   13.570946    0.000967
   13.630763    0.000954
   13.690581    0.000940
   13.750399    0.000927
   13.810217    0.000915
   13.870034    0.000902
   13.929852    0.000890
   13.989670    0.000878
   14.049487    0.000866
   14.109305    0.000854
   14.169123    0.000843
   14.228941    0.000832
   14.288758    0.000821
   14.348576    0.000811
   14.408394    0.000800
   14.468211    0.000790
   14.528029    0.000780
   14.587847    0.000770
   14.647665    0.000760
   14.707482    0.000751
   14.767300    0.000742
   14.827118    0.000732
   14.886936    0.000723
   14.946753    0.000715
   15.006571    0.000706
   15.066389    0.000698
   15.126206    0.000689
   15.186024    0.000681
   15.245842    0.000673
   15.305660    0.000665
   15.365477    0.000657
   15.425295    0.000650
   15.485113    0.000642
   15.544930    0.000635
   15.604748    0.000628
   15.664566    0.000621
   15.724384    0.000614
   15.784201    0.000607
   15.844019    0.000600
