# energy [eV], band-resolved DOS
  -14.005023    0.000306
  -13.945205    0.000309
  -13.885388    0.000311
  -13.825570    0.000314
  -13.765752    0.000316
  -13.705934    0.000319
  -13.646117    0.000322
  -13.586299    0.000324
  -13.526481    0.000327
  -13.466664    0.000330
  -13.406846    0.000332
  -13.347028    0.000335
  -13.287210    0.000338
  -13.227393    0.000341
  -13.167575    0.000344
  -13.107757    0.000347
  -13.047940    0.000350
  -12.988122    0.000353
  -12.928304    0.000356
  -12.868486    0.000359
  -12.808669    0.000362
  -12.748851    0.000365
  -12.689033    0.000368
  -12.629216    0.000371
  -12.569398    0.000375
  -12.509580    0.000378
  -12.449762    0.000381
  -12.389945    0.000385
  -12.330127    0.000388
  -12.270309    0.000392
  -12.210491    0.000395
  -12.150674    0.000399
  -12.090856    0.000403
  -12.031038    0.000406
  -11.971221    0.000410
  -11.911403    0.000414
  -11.851585    0.000418
  -11.791767    0.000422
  -11.731950    0.000426
  -11.672132    0.000430
  -11.612314    0.000434
  -11.552497    0.000438
  -11.492679    0.000442
  -11.432861    0.000446
  -11.373043    0.000451
  -11.313226    0.000455
  -11.253408    0.000459
  -11.193590    0.000464
  -11.133773    0.000469
  -11.073955    0.000473
  -11.014137    0.000478
  -10.954319    0.000483
  -10.894502    0.000488
  -10.834684    0.000493
  -10.774866    0.000498
  -10.715048    0.000503
  -10.655231    0.000508
  -10.595413    0.000513
  -10.535595    0.000518
  -10.475778    0.000524
  -10.415960    0.000529
  -10.356142    0.000535
  -10.296324    0.000541
  -10.236507    0.000546
  -10.176689    0.000552
  -10.116871    0.000558
  -10.057054    0.000564
   -9.997236    0.000570
   -9.937418    0.000577
   -9.877600    0.000583
   -9.817783    0.000590
   -9.757965    0.000596
   -9.698147    0.000603
   -9.638330    0.000610
   -9.578512    0.000617
   -9.518694    0.000624
   -9.458876    0.000631
   -9.399059    0.000638
   -9.339241    0.000645
   -9.279423    0.000653
   -9.219605    0.000661
   -9.159788    0.000668
   -9.099970    0.000676
   -9.040152    0.000685
   -8.980335    0.000693
   -8.920517    0.000701
   -8.860699    0.000710
   -8.800881    0.000718
   -8.741064    0.000727
   -8.681246    0.000736
   -8.621428    0.000745
   -8.561611    0.000755
   -8.501793    0.000764
   -8.441975    0.000774
   -8.382157    0.000784
   -8.322340    0.000794
   -8.262522    0.000804
   -8.202704    0.000815
   -8.142887    0.000826
   -8.083069    0.000837
   -8.023251    0.000848
   -7.963433    0.000859
   -7.903616    0.000871
   -7.843798    0.000883
   -7.783980    0.000895
   -7.724163    0.000907
   -7.664345    0.000920
   -7.604527    0.000932
   -7.544709    0.000946
   -7.484892    0.000959
   -7.425074    0.000973
   -7.365256    0.000987
   -7.305438    0.001001
   -7.245621    0.001016
   -7.185803    0.001031
   -7.125985    0.001046
   -7.066168    0.001062
   -7.006350    0.001077
   -6.946532    0.001094
   -6.886714    0.001111
   -6.826897    0.001128
   -6.767079    0.001145
   -6.707261    0.001163
   -6.647444    0.001181
   -6.587626    0.001200
   -6.527808    0.001219
   -6.467990    0.001239
   -6.408173    0.001259
   -6.348355    0.001280
   -6.288537    0.001301
   -6.228720    0.001323
   -6.168902    0.001345
   -6.109084    0.001368
   -6.049266    0.001391
   -5.989449    0.001416
   -5.929631    0.001440
   -5.869813    0.001466
   -5.809995    0.001492
   -5.750178    0.001518
   -5.690360    0.001546
   -5.630542    0.001574
   -5.570725    0.001603
   -5.510907    0.001633
   -5.451089    0.001663
   -5.391271    0.001695
   -5.331454    0.001727
   -5.271636    0.001761
   -5.211818    0.001795
   -5.152001    0.001830
   -5.092183    0.001867
   -5.032365    0.001904
   -4.972547    0.001943
   -4.912730    0.001983
   -4.852912    0.002024
   -4.793094    0.002067
   -4.733277    0.002110
   -4.673459    0.002156
   -4.613641    0.002202
   -4.553823    0.002250
   -4.494006    0.002300
   -4.434188    0.002352
   -4.374370    0.002405
   -4.314552    0.002460
   -4.254735    0.002517
   -4.194917    0.002576
   -4.135099    0.002638
   -4.075282    0.002701
   -4.015464    0.002767
   -3.955646    0.002835
   -3.895828    0.002906
   -3.836011    0.002980
   -3.776193    0.003056
   -3.716375    0.003135
   -3.656558    0.003218
   -3.596740    0.003304
   -3.536922    0.003393
   -3.477104    0.003487
   -3.417287    0.003584
   -3.357469    0.003685
   -3.297651    0.003791
   -3.237834    0.003901
   -3.178016    0.004016
   -3.118198    0.004137
   -3.058380    0.004263
   -2.998563    0.004395
   -2.938745    0.004533
   -2.878927    0.004679
   -2.819109    0.004831
   -2.759292    0.004991
   -2.699474    0.005159
   -2.639656    0.005336
   -2.579839    0.005523
   -2.520021    0.005719
   -2.460203    0.005927
   -2.400385    0.006146
   -2.340568    0.006378
   -2.280750    0.006623
   -2.220932    0.006884
   -2.161115    0.007160
   -2.101297    0.007454
   -2.041479    0.007767
   -1.981661    0.008100
   -1.921844    0.008456
   -1.862026    0.008836
   -1.802208    0.009244
   -1.742391    0.009681
   -1.682573    0.010151
   -1.622755    0.010658
   -1.562937    0.011205
   -1.503120    0.011797
   -1.443302    0.012439
   -1.383484    0.013137
   -1.323667    0.013899
   -1.263849    0.014733
   -1.204031    0.015648
   -1.144213    0.016656
   -1.084396    0.017771
   -1.024578    0.019009
   -0.964760    0.020391
   -0.904942    0.021942
   -0.845125    0.023692
   -0.785307    0.025680
   -0.725489    0.027955
   -0.665672    0.030580
   -0.605854    0.033638
   -0.546036    0.037239
   -0.486218    0.041534
   -0.426401    0.046730
   -0.366583    0.053118
   -0.306765    0.061112
   -0.246948    0.071298
   -0.187130    0.084466
   -0.127312    0.101525
   -0.067494    0.122992
   -0.007677    0.147561
    0.052141    0.170531
    0.111959    0.186673
    0.171776    0.197712
    0.231594    0.211660
    0.291412    0.235098
    0.351230    0.271043
    0.411047    0.321463
    0.470865    0.386924
    0.530683    0.458940
    0.590501    0.515246
    0.650318    0.537920
    0.710136    0.537005
    0.769954    0.536420
    0.829771    0.546796
    0.889589    0.558597
    0.949407    0.559631
    1.009225    0.556727
    1.069042    0.562029
    1.128860    0.569893
    1.188678    0.564162
    1.248495    0.540316
    1.308313    0.510655
    1.368131    0.486813
    1.427949    0.464074
    1.487766    0.432803
    1.547584    0.395722
    1.607402    0.359212
    1.667219    0.324111
    1.727037    0.293281
    1.786855    0.271602
    1.846673    0.257770
    1.906490    0.244009
    1.966308    0.224171
    2.026126    0.197859
    2.085944    0.168249
    2.145761    0.140175
    2.205579    0.116655
    2.265397    0.097707
    2.325214    0.082333
    2.385032    0.069908
    2.444850    0.060002
    2.504668    0.052129
    2.564485    0.045819
    2.624303    0.040691
    2.684121    0.036460
    2.743938    0.032919
    2.803756    0.029918
    2.863574    0.027345
    2.923392    0.025118
    2.983209    0.023174
    3.043027    0.021464
    3.102845    0.019950
    3.162662    0.018601
    3.222480    0.017392
    3.282298    0.016304
    3.342116    0.015321
    3.401933    0.014429
    3.461751    0.013616
    3.521569    0.012873
    3.581387    0.012192
    3.641204    0.011566
    3.701022    0.010988
    3.760840    0.010455
    3.820657    0.009960
    3.880475    0.009502
    3.940293    0.009075
    4.000111    0.008677
    4.059928    0.008305
    4.119746    0.007958
    4.179564    0.007632
    4.239381    0.007327
    4.299199    0.007040
    4.359017    0.006770
    4.418835    0.006515
    4.478652    0.006275
    4.538470    0.006048
    4.598288    0.005834
    4.658105    0.005631
    4.717923    0.005438
    4.777741    0.005256
    4.837559    0.005082
    4.897376    0.004918
    4.957194    0.004761
    5.017012    0.004611
    5.076829    0.004469
    5.136647    0.004334
    5.196465    0.004204
    5.256283    0.004080
    5.316100    0.003962
    5.375918    0.003849
    5.435736    0.003741
    5.495554    0.003637
    5.555371    0.003538
    5.615189    0.003442
    5.675007    0.003351
    5.734824    0.003263
    5.794642    0.003179
    5.854460    0.003097
    5.914278    0.003019
    5.974095    0.002944
    6.033913    0.002872
    6.093731    0.002802
    6.153548    0.002735
    6.213366    0.002670
    6.273184    0.002608
    6.333002    0.002548
    6.392819    0.002490
    6.452637    0.002433
    6.512455    0.002379
    6.572272    0.002327
    6.632090    0.002276
    6.691908    0.002227
    6.751726    0.002179
    6.811543    0.002133
    6.871361    0.002089
    6.931179    0.002046
    6.990997    0.002004
    7.050814    0.001963
    7.110632    0.001924
    7.170450    0.001886
    7.230267    0.001849
    7.290085    0.001813
    7.349903    0.001778
    7.409721    0.001744
    7.469538    0.001711
    7.529356    0.001679
    7.589174    0.001648
    7.648991    0.001618
    7.708809    0.001589
    7.768627    0.001560
    7.828445    0.001532
    7.888262    0.001505
    7.948080    0.001479
    8.007898    0.001453
    8.067715    0.001428
    8.127533    0.001404
    8.187351    0.001380
    8.247169    0.001357
    8.306986    0.001334
    8.366804    0.001312
    8.426622    0.001291
    8.486440    0.001270
    8.546257    0.001249
    8.606075    0.001229
    8.665893    0.001210
    8.725710    0.001191
    8.785528    0.001172
    8.845346    0.001154
    8.905164    0.001136
    8.964981    0.001119
    9.024799    0.001102
    9.084617    0.001086
    9.144434    0.001069
    9.204252    0.001054
    9.264070    0.001038
    9.323888    0.001023
    9.383705    0.001008
    9.443523    0.000994
    9.503341    0.000980
    9.563158    0.000966
    9.622976    0.000952
    9.682794    0.000939
    9.742612    0.000926
    9.802429    0.000913
    9.862247    0.000901
    9.922065    0.000889
    9.981882    0.000877
   10.041700    0.000865
   10.101518    0.000853
   10.161336    0.000842
   10.221153    0.000831
   10.280971    0.000820
   10.340789    0.000810
   10.400607    0.000799
   10.460424    0.000789
   10.520242    0.000779
   10.580060    0.000769
   10.639877    0.000760
   10.699695    0.000750
   10.759513    0.000741
   10.819331    0.000732
   10.879148    0.000723
   10.938966    0.000714
   10.998784    0.000705
   11.058601    0.000697
   11.118419    0.000689
   11.178237    0.000680
   11.238055    0.000672
   11.297872    0.000664
   11.357690    0.000657
   11.417508    0.000649
   11.477325    0.000642
   11.537143    0.000634
   11.596961    0.000627
   11.656779    0.000620
   11.716596    0.000613
   11.776414    0.000606
   11.836232    0.000599
   11.896050    0.000593
   11.955867    0.000586
   12.015685    0.000580
   12.075503    0.000574
   12.135320    0.000567
   12.195138    0.000561
   12.254956    0.000555
   12.314774    0.000549
   12.374591    0.000543
   12.434409    0.000538
   12.494227    0.000532
   12.554044    0.000527
   12.613862    0.000521
   12.673680    0.000516
   12.733498    0.000510
   12.793315    0.000505
   12.853133    0.000500
   12.912951    0.000495
   12.972768    0.000490
   13.032586    0.000485
   13.092404    0.000480
   13.152222    0.000476
   13.212039    0.000471
   13.271857    0.000466
   13.331675    0.000462
   13.391493    0.000457
   13.451310    0.000453
   13.511128    0.000448
   13.570946    0.000444
   13.630763    0.000440
   13.690581    0.000436
   13.750399    0.000432
   13.810217    0.000428
   13.870034    0.000424
   13.929852    0.000420
   13.989670    0.000416
   14.049487    0.000412
   14.109305    0.000408
   14.169123    0.000404
   14.228941    0.000401
   14.288758    0.000397
   14.348576    0.000394
   14.408394    0.000390
   14.468211    0.000386
   14.528029    0.000383
   14.587847    0.000380
   14.647665    0.000376
   14.707482    0.000373
   14.767300    0.000370
   14.827118    0.000367
   14.886936    0.000363
   14.946753    0.000360
   15.006571    0.000357
   15.066389    0.000354
   15.126206    0.000351
   15.186024    0.000348
   15.245842    0.000345
   15.305660    0.000342
   15.365477    0.000339
   15.425295    0.000337
   15.485113    0.000334
   15.544930    0.000331
   15.604748    0.000328
   15.664566    0.000326
   15.724384    0.000323
   15.784201    0.000320
   15.844019    0.000318
